#w  G'(w)  G"(w) eta(w)
0.0001 10.278 1416.18 1.41622e+07
0.00011 12.4359 1557.77 1.4162e+07
0.000121 15.0468 1713.51 1.41618e+07
0.0001331 18.2056 1884.82 1.41616e+07
0.00014641 22.0273 2073.24 1.41613e+07
0.000161051 26.6508 2280.48 1.41609e+07
0.000177156 32.2443 2508.42 1.41605e+07
0.000194872 39.0109 2759.11 1.416e+07
0.000214359 47.1964 3034.83 1.41594e+07
0.000235795 57.0977 3338.05 1.41587e+07
0.000259374 69.0736 3671.51 1.41578e+07
0.000285312 83.5578 4038.21 1.41567e+07
0.000313843 101.074 4441.42 1.41554e+07
0.000345227 122.254 4884.76 1.41538e+07
0.00037975 147.861 5372.16 1.41519e+07
0.000417725 178.815 5907.95 1.41496e+07
0.000459497 216.225 6496.85 1.41469e+07
0.000505447 261.427 7144.02 1.41435e+07
0.000555992 316.029 7855.08 1.41395e+07
0.000611591 381.961 8636.17 1.41346e+07
0.00067275 461.543 9493.93 1.41288e+07
0.000740025 557.555 10435.6 1.41218e+07
0.000814027 673.323 11468.9 1.41133e+07
0.00089543 812.818 12602.3 1.41032e+07
0.000984973 980.772 13844.7 1.40911e+07
0.00108347 1182.8 15205.7 1.40766e+07
0.00119182 1425.57 16695.5 1.40594e+07
0.001311 1716.92 18324.7 1.40388e+07
0.0014421 2066.07 20104.4 1.40145e+07
0.00158631 2483.83 22046 1.39856e+07
0.00174494 2982.74 24161.2 1.39515e+07
0.00191943 3577.32 26461.5 1.39115e+07
0.00211138 4284.23 28958.2 1.38646e+07
0.00232252 5122.5 31662 1.38099e+07
0.00255477 6113.63 34582.4 1.37463e+07
0.00281024 7281.72 37727.8 1.36729e+07
0.00309127 8653.51 41104.2 1.35883e+07
0.00340039 10258.3 44715.1 1.34916e+07
0.00374043 12128 48561 1.33815e+07
0.00411448 14296.4 52638 1.32568e+07
0.00452593 16799.3 56937.9 1.31165e+07
0.00497852 19673.5 61447 1.29596e+07
0.00547637 22956.3 66145.4 1.27851e+07
0.00602401 26684.5 71006.8 1.25922e+07
0.00662641 30892.8 75997.7 1.23803e+07
0.00728905 35613.4 81077.2 1.21489e+07
0.00801795 40873.4 86197.4 1.1898e+07
0.00881975 46694.3 91303 1.16274e+07
0.00970172 53089.4 96332.4 1.13374e+07
0.0106719 60062.7 101219 1.10287e+07
0.0117391 67607.2 105891 1.07021e+07
0.012913 75703.8 110276 1.03586e+07
0.0142043 84319.8 114303 9.99971e+06
0.0156247 93409.5 117902 9.62705e+06
0.0171872 102914 121009 9.24255e+06
0.0189059 112761 123572 8.84838e+06
0.0207965 122868 125547 8.44692e+06
0.0228762 133148 126908 8.04068e+06
0.0251638 143504 127642 7.63228e+06
0.0276801 153843 127754 7.22438e+06
0.0304482 164071 127268 6.81963e+06
0.033493 174105 126220 6.42057e+06
0.0368423 183869 124661 6.0296e+06
0.0405265 193301 122653 5.64889e+06
0.0445792 202354 120263 5.28037e+06
0.0490371 210996 117564 4.92563e+06
0.0539408 219209 114628 4.58597e+06
0.0593349 226990 111520 4.26234e+06
0.0652683 234345 108304 3.95539e+06
0.0717952 241292 105032 3.66544e+06
0.0789747 247853 101750 3.39256e+06
0.0868722 254056 98494.1 3.13656e+06
0.0955594 259928 95290.7 2.89709e+06
0.105115 265498 92160 2.67362e+06
0.115627 270793 89114.9 2.46551e+06
0.12719 275837 86163.8 2.27205e+06
0.139908 280651 83310.9 2.09248e+06
0.153899 285255 80558.1 1.92601e+06
0.169289 289662 77905.6 1.77185e+06
0.186218 293888 75353.2 1.62924e+06
0.20484 297943 72900.1 1.49742e+06
0.225324 301837 70545.8 1.37567e+06
0.247856 305579 68290.1 1.2633e+06
0.272642 309178 66133.2 1.15966e+06
0.299906 312643 64075.1 1.06414e+06
0.329897 315982 62116.3 976151
0.362887 319202 60257 895156
0.399175 322314 58497.1 820640
0.439093 325325 56836.2 752126
0.483002 328246 55273.1 689162
0.531302 331084 53806.3 631331
0.584432 333849 52433.2 578238
0.642876 336549 51150.8 529517
0.707163 339192 49955.2 484826
0.77788 341787 48841.7 443847
0.855668 344341 47805.3 406283
0.941234 346859 46840.2 371860
1.03536 349347 45940.3 340322
1.13889 351811 45099.2 311433
1.25278 354253 44310.3 284976
1.37806 356676 43567.3 260748
1.51587 359083 42863.7 238565
1.66745 361474 42193.4 218254
1.8342 363851 41550.8 199660
2.01762 366211 40930.7 182637
2.21938 368556 40328.4 167054
2.44132 370882 39739.9 152788
2.68545 373189 39161.9 139730
2.954 375474 38591.7 127777
3.2494 377736 38027.2 116836
3.57434 379973 37466.9 106821
3.93177 382182 36909.9 97655.8
4.32495 384362 36355.5 89267.6
4.75744 386512 35803.8 81591.5
5.23319 388630 35254.9 74567.5
5.7565 390715 34709.3 68140.9
6.33215 392766 34167.6 62261.5
6.96537 394783 33630.6 56883.3
7.66191 396766 33099.1 51964.1
8.4281 398715 32573.9 47465.4
9.27091 400629 32055.8 43351.7
10.198 402510 31545.6 39590.5
11.2178 404357 31043.9 36152.1
12.3396 406172 30551.5 33009.2
13.5735 407954 30069 30136.6
14.9309 409705 29596.9 27511.6
16.424 411424 29135.8 25113
18.0664 413114 28686.1 22921.5
19.873 414773 28248.4 20919.5
21.8603 416405 27823.1 19090.9
24.0463 418008 27410.7 17420.7
26.451 419583 27011.7 15895.5
29.0961 421133 26626.6 14502.8
32.0057 422656 26255.7 13231.1
35.2063 424156 25899.6 12070.2
38.7269 425631 25558.7 11010.4
42.5996 427083 25233.5 10043
46.8595 428513 24924.4 9160.09
51.5455 429923 24631.9 8354.33
56.7 431312 24356.5 7619.02
62.37 432681 24098.6 6948.08
68.607 434033 23858.7 6335.92
75.4677 435367 23637.5 5777.42
83.0145 436685 23435.3 5267.92
91.316 437988 23252.8 4803.16
100.448 439276 23090.6 4379.23
110.492 440551 22949.3 3992.57
121.542 441814 22829.6 3639.94
133.696 443066 22732.3 3318.34
147.065 444307 22658 3025.08
161.772 445539 22607.7 2757.67
177.949 446764 22582.2 2513.83
195.744 447982 22582.4 2291.52
215.318 449194 22609.3 2088.83
236.85 450401 22664.1 1904.04
260.535 451606 22747.9 1735.57
286.589 452808 22861.9 1582.01
315.247 454009 23007.5 1442.02
346.772 455212 23186 1314.41
381.449 456416 23399.2 1198.1
419.594 457623 23648.6 1092.09
461.554 458835 23936 995.461
507.709 460053 24263.4 907.394
558.48 461278 24632.8 827.13
614.328 462513 25046.5 753.98
675.761 463759 25507 687.314
743.337 465017 26016.8 626.559
817.671 466289 26578.7 571.191
899.438 467577 27195.9 520.734
989.382 468883 27871.6 474.752
1088.32 470209 28609.3 432.849
1197.15 471556 29412.9 394.664
1316.87 472927 30286.6 359.866
1448.55 474323 31234.8 328.155
1593.41 475748 32262.5 299.258
1752.75 477203 33374.7 272.925
1928.02 478691 34577.4 248.928
2120.83 480214 35876.5 227.059
2332.91 481776 37278.9 207.13
2566.2 483378 38791.7 188.969
2822.82 485023 40422.9 172.418
3105.1 486715 42180.8 157.334
3415.61 488457 44074.9 143.588
3757.17 490252 46115.1 131.06
4132.89 492104 48312.4 119.643
4546.18 494016 50678.5 109.236
5000.8 495992 53226.5 99.752
5500.88 498036 55970.2 91.1075
6050.97 500154 58925.1 83.2285
6656.06 502348 62107.6 76.0469
7321.67 504625 65535.9 69.5009
8053.84 506989 69229.8 63.5342
8859.22 509446 73210.6 58.0954
9745.14 512003 77501.8 53.1378
10719.7 514665 82129.2 48.6188
11791.6 517439 87120.6 44.4996
12970.8 520334 92506.6 40.7449
14267.9 523358 98320.7 37.3226
15694.7 526520 104599 34.2033
17264.1 529830 111383 31.3605
18990.5 533300 118715 28.7698
20889.6 536944 126644 26.4092
22978.5 540776 135223 24.2585
25276.4 544813 144509 22.2996
27804 549077 154566 20.5157
30584.4 553591 165463 18.8916
33642.9 558384 177276 17.4138
37007.2 563489 190087 16.0695
40707.9 568948 203985 14.8475
44778.7 574811 219065 13.7373
49256.5 581136 235429 12.7295
54182.2 587995 253184 11.8155
59600.4 595472 272438 10.9871
65560.5 603667 293304 10.2371
72116.5 612695 315890 9.55862
79328.1 622687 340300 8.94522
87261 633786 366631 8.39082
95987.1 646152 394965 7.88965
105586 659950 425370 7.43621
116144 675349 457898 7.02527
127759 692519 492583 6.65187
140535 711621 529443 6.31139
154588 732806 568483 5.99954
170047 756206 609702 5.71244
187052 781939 653094 5.44664
205757 810101 698658 5.19915
226332 840771 746405 4.9674
248966 874013 796358 4.74927
273862 909880 848562 4.54302
301249 948417 903079 4.34724
331373 989668 960001 4.16082
364511 1.03367e+06 1.01944e+06 3.98288
400962 1.08049e+06 1.08152e+06 3.81276
441058 1.13016e+06 1.14642e+06 3.64991
485164 1.18275e+06 1.2143e+06 3.4939
533680 1.23834e+06 1.28537e+06 3.3444
587048 1.297e+06 1.35985e+06 3.2011
645753 1.35885e+06 1.43797e+06 3.06377
710328 1.42397e+06 1.52e+06 2.93218
781361 1.49251e+06 1.60621e+06 2.80613
859497 1.56457e+06 1.69691e+06 2.68543
945447 1.64032e+06 1.7924e+06 2.56988
1.03999e+06 1.71991e+06 1.89304e+06 2.45932
1.14399e+06 1.8035e+06 1.99918e+06 2.35357
1.25839e+06 1.89127e+06 2.11122e+06 2.25245
1.38423e+06 1.98342e+06 2.22956e+06 2.15579
1.52265e+06 2.08015e+06 2.35466e+06 2.06343
1.67492e+06 2.18169e+06 2.48698e+06 1.9752
1.84241e+06 2.28825e+06 2.62705e+06 1.89094
2.02665e+06 2.40009e+06 2.77539e+06 1.81049
2.22931e+06 2.51747e+06 2.93261e+06 1.7337
2.45225e+06 2.64066e+06 3.09933e+06 1.66041
2.69747e+06 2.76996e+06 3.27622e+06 1.59047
2.96722e+06 2.90568e+06 3.46402e+06 1.52376
3.26394e+06 3.04814e+06 3.66351e+06 1.46013
3.59033e+06 3.1977e+06 3.87554e+06 1.39944
3.94937e+06 3.35473e+06 4.10102e+06 1.34157
4.3443e+06 3.51962e+06 4.34093e+06 1.2864
4.77873e+06 3.6928e+06 4.59633e+06 1.2338
5.25661e+06 3.87472e+06 4.86838e+06 1.18367
